TITLE	
DATA TYPE	
ORIGIN	JASCO
OWNER	
DATE	18/01/18
TIME	17:13:23
SPECTROMETER/DATA SYSTEM	JASCO Corp., V-560, Rev. 1.00
RESOLUTION	
DELTAX	1
XUNITS	SEC
YUNITS	ABSORBANCE
FIRSTX	0.0000
LASTX	300.0000
NPOINTS	301
FIRSTY	1.76474
MAXY	1.76474
MINY	0.10992
XYDATA
0.0000	1.76474
1.0000	1.76256
2.0000	1.75868
3.0000	1.7499
4.0000	1.75007
5.0000	1.75038
6.0000	1.74774
7.0000	1.75142
8.0000	1.75211
9.0000	1.73706
10.0000	1.73075
11.0000	1.72719
12.0000	1.71799
13.0000	1.73143
14.0000	1.72262
15.0000	1.70948
16.0000	1.71649
17.0000	1.70999
18.0000	1.6945
19.0000	1.69955
20.0000	1.69581
21.0000	1.68763
22.0000	1.68481
23.0000	1.67902
24.0000	1.68289
25.0000	1.68268
26.0000	1.6786
27.0000	1.67802
28.0000	1.66755
29.0000	1.65953
30.0000	1.65926
31.0000	1.64922
32.0000	1.65254
33.0000	1.64331
34.0000	1.64399
35.0000	1.63038
36.0000	1.61537
37.0000	1.62611
38.0000	1.62061
39.0000	1.61336
40.0000	1.59837
41.0000	1.59586
42.0000	1.59799
43.0000	1.59003
44.0000	1.57829
45.0000	1.58136
46.0000	1.57156
47.0000	1.5626
48.0000	1.56063
49.0000	1.54971
50.0000	1.55327
51.0000	1.53954
52.0000	1.54161
53.0000	1.53313
54.0000	1.52532
55.0000	1.51814
56.0000	1.51534
57.0000	1.51049
58.0000	1.50181
59.0000	1.49118
60.0000	1.489
61.0000	1.47618
62.0000	1.47975
63.0000	1.47066
64.0000	1.46049
65.0000	1.45244
66.0000	1.45811
67.0000	1.44777
68.0000	1.44424
69.0000	1.42334
70.0000	1.42831
71.0000	1.41815
72.0000	1.40902
73.0000	1.40459
74.0000	1.40214
75.0000	1.38621
76.0000	1.38761
77.0000	1.37627
78.0000	1.36916
79.0000	1.35902
80.0000	1.35
81.0000	1.35079
82.0000	1.33919
83.0000	1.33246
84.0000	1.33239
85.0000	1.31462
86.0000	1.31882
87.0000	1.30638
88.0000	1.30292
89.0000	1.2942
90.0000	1.28141
91.0000	1.27433
92.0000	1.2653
93.0000	1.26585
94.0000	1.25517
95.0000	1.24801
96.0000	1.24639
97.0000	1.23433
98.0000	1.22702
99.0000	1.21901
100.0000	1.21472
101.0000	1.2065
102.0000	1.19226
103.0000	1.18829
104.0000	1.18404
105.0000	1.17462
106.0000	1.16307
107.0000	1.16067
108.0000	1.15452
109.0000	1.14676
110.0000	1.13994
111.0000	1.13634
112.0000	1.12532
113.0000	1.1191
114.0000	1.10935
115.0000	1.09993
116.0000	1.09118
117.0000	1.08372
118.0000	1.07512
119.0000	1.06604
120.0000	1.05863
121.0000	1.05676
122.0000	1.04783
123.0000	1.03657
124.0000	1.03162
125.0000	1.02198
126.0000	1.01143
127.0000	1.01078
128.0000	1.00168
129.0000	0.99135
130.0000	0.98481
131.0000	0.97368
132.0000	0.96776
133.0000	0.95942
134.0000	0.95649
135.0000	0.94268
136.0000	0.93954
137.0000	0.93027
138.0000	0.91762
139.0000	0.91541
140.0000	0.90477
141.0000	0.89748
142.0000	0.88966
143.0000	0.8819
144.0000	0.87534
145.0000	0.86934
146.0000	0.85732
147.0000	0.84937
148.0000	0.84302
149.0000	0.83574
150.0000	0.82799
151.0000	0.82286
152.0000	0.81077
153.0000	0.80408
154.0000	0.79873
155.0000	0.78805
156.0000	0.7822
157.0000	0.77539
158.0000	0.7651
159.0000	0.75688
160.0000	0.74904
161.0000	0.74205
162.0000	0.73387
163.0000	0.72723
164.0000	0.71884
165.0000	0.70995
166.0000	0.70095
167.0000	0.69543
168.0000	0.68424
169.0000	0.67827
170.0000	0.66883
171.0000	0.66217
172.0000	0.65669
173.0000	0.65022
174.0000	0.63955
175.0000	0.63048
176.0000	0.62377
177.0000	0.61496
178.0000	0.60858
179.0000	0.60191
180.0000	0.59339
181.0000	0.58515
182.0000	0.57982
183.0000	0.56918
184.0000	0.56187
185.0000	0.55294
186.0000	0.54693
187.0000	0.538
188.0000	0.53144
189.0000	0.5245
190.0000	0.51602
191.0000	0.50947
192.0000	0.4998
193.0000	0.49121
194.0000	0.48647
195.0000	0.47653
196.0000	0.46924
197.0000	0.45992
198.0000	0.45518
199.0000	0.44812
200.0000	0.43932
201.0000	0.43466
202.0000	0.4255
203.0000	0.41783
204.0000	0.41095
205.0000	0.40211
206.0000	0.39652
207.0000	0.38709
208.0000	0.38066
209.0000	0.37348
210.0000	0.36432
211.0000	0.35654
212.0000	0.35292
213.0000	0.34499
214.0000	0.33669
215.0000	0.32991
216.0000	0.31921
217.0000	0.31593
218.0000	0.30637
219.0000	0.29983
220.0000	0.29304
221.0000	0.28431
222.0000	0.2789
223.0000	0.27168
224.0000	0.26425
225.0000	0.25746
226.0000	0.2504
227.0000	0.24343
228.0000	0.23474
229.0000	0.23006
230.0000	0.22339
231.0000	0.21748
232.0000	0.21126
233.0000	0.20632
234.0000	0.19829
235.0000	0.19411
236.0000	0.18615
237.0000	0.17977
238.0000	0.17487
239.0000	0.16817
240.0000	0.16245
241.0000	0.15826
242.0000	0.15155
243.0000	0.14946
244.0000	0.14465
245.0000	0.13817
246.0000	0.13603
247.0000	0.13046
248.0000	0.12924
249.0000	0.12817
250.0000	0.12424
251.0000	0.12361
252.0000	0.12028
253.0000	0.11903
254.0000	0.119
255.0000	0.11641
256.0000	0.11523
257.0000	0.11599
258.0000	0.11503
259.0000	0.11454
260.0000	0.11555
261.0000	0.11495
262.0000	0.11418
263.0000	0.11136
264.0000	0.11436
265.0000	0.1127
266.0000	0.11303
267.0000	0.11367
268.0000	0.11352
269.0000	0.11266
270.0000	0.11247
271.0000	0.11332
272.0000	0.11197
273.0000	0.11166
274.0000	0.11363
275.0000	0.11265
276.0000	0.11168
277.0000	0.11221
278.0000	0.11306
279.0000	0.11294
280.0000	0.11097
281.0000	0.11268
282.0000	0.11172
283.0000	0.11166
284.0000	0.11283
285.0000	0.11356
286.0000	0.11272
287.0000	0.11173
288.0000	0.11318
289.0000	0.11291
290.0000	0.11253
291.0000	0.10992
292.0000	0.11184
293.0000	0.11266
294.0000	0.11129
295.0000	0.11219
296.0000	0.11165
297.0000	0.11313
298.0000	0.11249
299.0000	0.11284
300.0000	0.1134
