TITLE	
DATA TYPE	
ORIGIN	JASCO
OWNER	
DATE	18/01/18
TIME	17:54:47
SPECTROMETER/DATA SYSTEM	JASCO Corp., V-560, Rev. 1.00
RESOLUTION	
DELTAX	1
XUNITS	SEC
YUNITS	ABSORBANCE
FIRSTX	0.0000
LASTX	300.0000
NPOINTS	301
FIRSTY	1.74152
MAXY	1.74538
MINY	0.97321
XYDATA
0.0000	1.74152
1.0000	1.74443
2.0000	1.73375
3.0000	1.74043
4.0000	1.74538
5.0000	1.73802
6.0000	1.73964
7.0000	1.7327
8.0000	1.73594
9.0000	1.73546
10.0000	1.72814
11.0000	1.72526
12.0000	1.72123
13.0000	1.7265
14.0000	1.73277
15.0000	1.72564
16.0000	1.72415
17.0000	1.71338
18.0000	1.71283
19.0000	1.71736
20.0000	1.71603
21.0000	1.71085
22.0000	1.71509
23.0000	1.70923
24.0000	1.71051
25.0000	1.70404
26.0000	1.70823
27.0000	1.70093
28.0000	1.70075
29.0000	1.70372
30.0000	1.69636
31.0000	1.69602
32.0000	1.69063
33.0000	1.69329
34.0000	1.68105
35.0000	1.68407
36.0000	1.67954
37.0000	1.67258
38.0000	1.68012
39.0000	1.68135
40.0000	1.67742
41.0000	1.666
42.0000	1.66168
43.0000	1.66372
44.0000	1.66351
45.0000	1.66471
46.0000	1.65863
47.0000	1.65746
48.0000	1.64881
49.0000	1.65844
50.0000	1.65536
51.0000	1.64337
52.0000	1.63876
53.0000	1.64369
54.0000	1.63918
55.0000	1.62846
56.0000	1.63118
57.0000	1.631
58.0000	1.63531
59.0000	1.62546
60.0000	1.62112
61.0000	1.62568
62.0000	1.62031
63.0000	1.62526
64.0000	1.61286
65.0000	1.60546
66.0000	1.61171
67.0000	1.60532
68.0000	1.60465
69.0000	1.60939
70.0000	1.59547
71.0000	1.59252
72.0000	1.59584
73.0000	1.58792
74.0000	1.59674
75.0000	1.58546
76.0000	1.58409
77.0000	1.5852
78.0000	1.57675
79.0000	1.57276
80.0000	1.58089
81.0000	1.56811
82.0000	1.56111
83.0000	1.57346
84.0000	1.5691
85.0000	1.55658
86.0000	1.55224
87.0000	1.56283
88.0000	1.54891
89.0000	1.55715
90.0000	1.5448
91.0000	1.54387
92.0000	1.54011
93.0000	1.53982
94.0000	1.52949
95.0000	1.53302
96.0000	1.53599
97.0000	1.52886
98.0000	1.52011
99.0000	1.52378
100.0000	1.52712
101.0000	1.52241
102.0000	1.5217
103.0000	1.51184
104.0000	1.51651
105.0000	1.50341
106.0000	1.4991
107.0000	1.50312
108.0000	1.50481
109.0000	1.50641
110.0000	1.49691
111.0000	1.49654
112.0000	1.49181
113.0000	1.48525
114.0000	1.48631
115.0000	1.48268
116.0000	1.47834
117.0000	1.47902
118.0000	1.47441
119.0000	1.47314
120.0000	1.47277
121.0000	1.46409
122.0000	1.46336
123.0000	1.46492
124.0000	1.46088
125.0000	1.45771
126.0000	1.45185
127.0000	1.45247
128.0000	1.44566
129.0000	1.4393
130.0000	1.4466
131.0000	1.43919
132.0000	1.43696
133.0000	1.43559
134.0000	1.42948
135.0000	1.4298
136.0000	1.42492
137.0000	1.4242
138.0000	1.42351
139.0000	1.41836
140.0000	1.41562
141.0000	1.41638
142.0000	1.40621
143.0000	1.39979
144.0000	1.40307
145.0000	1.40268
146.0000	1.3964
147.0000	1.39372
148.0000	1.39503
149.0000	1.3875
150.0000	1.38337
151.0000	1.39002
152.0000	1.38505
153.0000	1.37994
154.0000	1.3749
155.0000	1.36998
156.0000	1.3741
157.0000	1.36488
158.0000	1.36039
159.0000	1.36707
160.0000	1.36018
161.0000	1.36047
162.0000	1.35115
163.0000	1.35424
164.0000	1.35678
165.0000	1.34372
166.0000	1.34849
167.0000	1.33909
168.0000	1.32946
169.0000	1.33597
170.0000	1.33294
171.0000	1.33019
172.0000	1.33022
173.0000	1.32328
174.0000	1.32336
175.0000	1.31857
176.0000	1.31481
177.0000	1.31286
178.0000	1.31324
179.0000	1.30821
180.0000	1.30286
181.0000	1.30126
182.0000	1.29427
183.0000	1.29978
184.0000	1.29368
185.0000	1.28818
186.0000	1.28683
187.0000	1.28061
188.0000	1.2837
189.0000	1.28147
190.0000	1.27566
191.0000	1.26975
192.0000	1.26633
193.0000	1.26957
194.0000	1.26763
195.0000	1.2626
196.0000	1.26078
197.0000	1.2603
198.0000	1.2567
199.0000	1.25169
200.0000	1.25139
201.0000	1.25016
202.0000	1.24488
203.0000	1.24445
204.0000	1.23587
205.0000	1.23633
206.0000	1.23677
207.0000	1.22944
208.0000	1.22766
209.0000	1.22673
210.0000	1.22337
211.0000	1.21226
212.0000	1.21322
213.0000	1.2112
214.0000	1.21574
215.0000	1.20997
216.0000	1.20636
217.0000	1.20252
218.0000	1.19623
219.0000	1.19762
220.0000	1.19525
221.0000	1.19319
222.0000	1.18793
223.0000	1.18867
224.0000	1.18787
225.0000	1.18314
226.0000	1.17593
227.0000	1.17416
228.0000	1.17397
229.0000	1.17168
230.0000	1.16912
231.0000	1.16449
232.0000	1.16357
233.0000	1.15644
234.0000	1.15888
235.0000	1.1558
236.0000	1.14749
237.0000	1.14924
238.0000	1.14754
239.0000	1.14043
240.0000	1.14151
241.0000	1.13673
242.0000	1.13251
243.0000	1.13397
244.0000	1.13062
245.0000	1.12943
246.0000	1.12533
247.0000	1.11992
248.0000	1.11729
249.0000	1.11331
250.0000	1.11231
251.0000	1.10976
252.0000	1.1047
253.0000	1.10683
254.0000	1.09793
255.0000	1.09861
256.0000	1.09232
257.0000	1.09494
258.0000	1.09264
259.0000	1.08792
260.0000	1.08787
261.0000	1.08223
262.0000	1.08258
263.0000	1.07943
264.0000	1.07503
265.0000	1.0719
266.0000	1.0671
267.0000	1.06466
268.0000	1.06359
269.0000	1.05886
270.0000	1.05678
271.0000	1.05549
272.0000	1.05283
273.0000	1.05163
274.0000	1.04509
275.0000	1.04842
276.0000	1.04106
277.0000	1.0369
278.0000	1.03489
279.0000	1.03276
280.0000	1.03299
281.0000	1.03127
282.0000	1.0256
283.0000	1.02522
284.0000	1.01859
285.0000	1.0167
286.0000	1.00969
287.0000	1.01157
288.0000	1.00929
289.0000	1.00807
290.0000	1.00249
291.0000	1.00134
292.0000	0.99708
293.0000	0.9944
294.0000	0.9916
295.0000	0.99022
296.0000	0.98441
297.0000	0.98445
298.0000	0.98355
299.0000	0.97514
300.0000	0.97321
