TITLE	
DATA TYPE	
ORIGIN	JASCO
OWNER	
DATE	18/01/18
TIME	19:06:28
SPECTROMETER/DATA SYSTEM	JASCO Corp., V-560, Rev. 1.00
RESOLUTION	
DELTAX	1
XUNITS	SEC
YUNITS	ABSORBANCE
FIRSTX	0.0000
LASTX	300.0000
NPOINTS	301
FIRSTY	1.67234
MAXY	1.67376
MINY	0.09273
XYDATA
0.0000	1.67234
1.0000	1.67116
2.0000	1.67376
3.0000	1.66264
4.0000	1.67015
5.0000	1.66676
6.0000	1.6613
7.0000	1.65947
8.0000	1.6556
9.0000	1.65385
10.0000	1.65333
11.0000	1.64469
12.0000	1.64657
13.0000	1.65214
14.0000	1.63867
15.0000	1.64524
16.0000	1.63746
17.0000	1.64135
18.0000	1.62927
19.0000	1.62562
20.0000	1.63225
21.0000	1.62549
22.0000	1.61817
23.0000	1.62103
24.0000	1.61131
25.0000	1.60814
26.0000	1.61411
27.0000	1.61481
28.0000	1.60406
29.0000	1.60331
30.0000	1.59874
31.0000	1.59077
32.0000	1.59478
33.0000	1.5856
34.0000	1.58005
35.0000	1.58219
36.0000	1.57273
37.0000	1.57073
38.0000	1.56827
39.0000	1.56355
40.0000	1.55112
41.0000	1.55455
42.0000	1.55425
43.0000	1.54794
44.0000	1.54087
45.0000	1.54667
46.0000	1.53051
47.0000	1.52741
48.0000	1.52562
49.0000	1.51923
50.0000	1.51517
51.0000	1.50519
52.0000	1.50698
53.0000	1.50051
54.0000	1.49755
55.0000	1.49206
56.0000	1.48496
57.0000	1.48412
58.0000	1.48619
59.0000	1.47491
60.0000	1.4706
61.0000	1.4618
62.0000	1.46111
63.0000	1.45756
64.0000	1.45425
65.0000	1.44885
66.0000	1.43886
67.0000	1.43498
68.0000	1.42731
69.0000	1.41991
70.0000	1.42067
71.0000	1.42147
72.0000	1.40781
73.0000	1.40477
74.0000	1.40142
75.0000	1.39356
76.0000	1.38457
77.0000	1.38772
78.0000	1.3775
79.0000	1.37325
80.0000	1.367
81.0000	1.35655
82.0000	1.3548
83.0000	1.3473
84.0000	1.34116
85.0000	1.33273
86.0000	1.33355
87.0000	1.32856
88.0000	1.32126
89.0000	1.31268
90.0000	1.3123
91.0000	1.3019
92.0000	1.30193
93.0000	1.299
94.0000	1.28584
95.0000	1.27922
96.0000	1.27617
97.0000	1.27061
98.0000	1.26094
99.0000	1.25809
100.0000	1.25495
101.0000	1.24396
102.0000	1.23737
103.0000	1.23659
104.0000	1.22908
105.0000	1.22186
106.0000	1.2172
107.0000	1.21034
108.0000	1.20615
109.0000	1.20431
110.0000	1.19654
111.0000	1.18757
112.0000	1.18246
113.0000	1.17557
114.0000	1.17056
115.0000	1.16435
116.0000	1.15803
117.0000	1.15173
118.0000	1.14653
119.0000	1.13636
120.0000	1.13443
121.0000	1.13004
122.0000	1.12169
123.0000	1.11877
124.0000	1.10533
125.0000	1.1034
126.0000	1.09792
127.0000	1.09221
128.0000	1.0846
129.0000	1.08254
130.0000	1.07138
131.0000	1.06805
132.0000	1.05723
133.0000	1.05074
134.0000	1.0494
135.0000	1.03887
136.0000	1.03466
137.0000	1.02674
138.0000	1.02353
139.0000	1.01471
140.0000	1.01293
141.0000	1.00764
142.0000	0.99922
143.0000	0.99281
144.0000	0.98345
145.0000	0.98107
146.0000	0.97199
147.0000	0.96887
148.0000	0.95755
149.0000	0.95443
150.0000	0.94859
151.0000	0.94123
152.0000	0.93312
153.0000	0.92773
154.0000	0.92234
155.0000	0.91696
156.0000	0.9096
157.0000	0.90555
158.0000	0.89617
159.0000	0.89154
160.0000	0.88661
161.0000	0.88204
162.0000	0.87264
163.0000	0.8667
164.0000	0.85906
165.0000	0.85228
166.0000	0.84743
167.0000	0.8401
168.0000	0.83551
169.0000	0.82959
170.0000	0.82522
171.0000	0.81513
172.0000	0.80849
173.0000	0.80275
174.0000	0.79815
175.0000	0.78888
176.0000	0.78334
177.0000	0.78005
178.0000	0.77333
179.0000	0.76472
180.0000	0.75902
181.0000	0.75417
182.0000	0.74523
183.0000	0.7401
184.0000	0.73272
185.0000	0.72773
186.0000	0.72333
187.0000	0.71596
188.0000	0.707
189.0000	0.70512
190.0000	0.69599
191.0000	0.69044
192.0000	0.6863
193.0000	0.67739
194.0000	0.67051
195.0000	0.66907
196.0000	0.66067
197.0000	0.65493
198.0000	0.64766
199.0000	0.64013
200.0000	0.63369
201.0000	0.62691
202.0000	0.62212
203.0000	0.61596
204.0000	0.60773
205.0000	0.60462
206.0000	0.5998
207.0000	0.5919
208.0000	0.58604
209.0000	0.57965
210.0000	0.57559
211.0000	0.56663
212.0000	0.56147
213.0000	0.55406
214.0000	0.55
215.0000	0.53997
216.0000	0.53628
217.0000	0.53012
218.0000	0.52419
219.0000	0.51763
220.0000	0.51181
221.0000	0.50406
222.0000	0.49723
223.0000	0.49577
224.0000	0.48832
225.0000	0.47976
226.0000	0.47875
227.0000	0.46988
228.0000	0.46307
229.0000	0.4574
230.0000	0.4519
231.0000	0.44677
232.0000	0.44114
233.0000	0.43324
234.0000	0.42665
235.0000	0.41956
236.0000	0.4175
237.0000	0.4091
238.0000	0.40222
239.0000	0.39658
240.0000	0.39323
241.0000	0.3858
242.0000	0.37973
243.0000	0.37518
244.0000	0.36929
245.0000	0.3632
246.0000	0.35742
247.0000	0.35157
248.0000	0.34741
249.0000	0.34103
250.0000	0.3339
251.0000	0.32809
252.0000	0.32206
253.0000	0.31855
254.0000	0.31097
255.0000	0.30757
256.0000	0.30165
257.0000	0.29443
258.0000	0.29082
259.0000	0.28104
260.0000	0.27707
261.0000	0.27177
262.0000	0.26871
263.0000	0.26064
264.0000	0.25547
265.0000	0.25059
266.0000	0.24526
267.0000	0.24015
268.0000	0.23579
269.0000	0.22862
270.0000	0.22354
271.0000	0.21864
272.0000	0.21365
273.0000	0.2078
274.0000	0.2017
275.0000	0.19722
276.0000	0.19277
277.0000	0.18717
278.0000	0.18224
279.0000	0.17683
280.0000	0.17121
281.0000	0.16743
282.0000	0.16113
283.0000	0.15869
284.0000	0.15414
285.0000	0.14943
286.0000	0.14362
287.0000	0.14019
288.0000	0.13451
289.0000	0.13031
290.0000	0.12585
291.0000	0.12085
292.0000	0.12004
293.0000	0.11512
294.0000	0.11041
295.0000	0.10745
296.0000	0.10558
297.0000	0.10144
298.0000	0.10017
299.0000	0.09708
300.0000	0.09273
