TITLE	
DATA TYPE	
ORIGIN	JASCO
OWNER	
DATE	18/01/18
TIME	19:14:36
SPECTROMETER/DATA SYSTEM	JASCO Corp., V-560, Rev. 1.00
RESOLUTION	
DELTAX	1
XUNITS	SEC
YUNITS	ABSORBANCE
FIRSTX	0.0000
LASTX	300.0000
NPOINTS	301
FIRSTY	1.73648
MAXY	1.73648
MINY	0.13045
XYDATA
0.0000	1.73648
1.0000	1.73361
2.0000	1.72194
3.0000	1.72179
4.0000	1.72928
5.0000	1.72274
6.0000	1.72872
7.0000	1.7222
8.0000	1.71877
9.0000	1.71672
10.0000	1.71697
11.0000	1.70627
12.0000	1.70638
13.0000	1.72048
14.0000	1.71344
15.0000	1.7069
16.0000	1.70557
17.0000	1.70067
18.0000	1.70625
19.0000	1.69453
20.0000	1.68972
21.0000	1.6949
22.0000	1.6877
23.0000	1.68176
24.0000	1.68023
25.0000	1.67642
26.0000	1.67459
27.0000	1.67098
28.0000	1.67013
29.0000	1.6578
30.0000	1.65027
31.0000	1.66014
32.0000	1.65255
33.0000	1.65192
34.0000	1.64858
35.0000	1.64261
36.0000	1.63656
37.0000	1.63137
38.0000	1.62809
39.0000	1.62397
40.0000	1.6273
41.0000	1.61737
42.0000	1.61045
43.0000	1.61078
44.0000	1.61184
45.0000	1.60197
46.0000	1.59185
47.0000	1.59274
48.0000	1.58275
49.0000	1.58188
50.0000	1.57896
51.0000	1.58468
52.0000	1.56185
53.0000	1.56026
54.0000	1.55398
55.0000	1.55722
56.0000	1.5487
57.0000	1.5447
58.0000	1.5424
59.0000	1.53387
60.0000	1.53227
61.0000	1.52497
62.0000	1.52654
63.0000	1.51991
64.0000	1.51389
65.0000	1.49709
66.0000	1.49462
67.0000	1.49056
68.0000	1.49052
69.0000	1.48091
70.0000	1.48019
71.0000	1.4765
72.0000	1.47251
73.0000	1.46369
74.0000	1.45824
75.0000	1.45459
76.0000	1.44544
77.0000	1.43511
78.0000	1.43954
79.0000	1.43398
80.0000	1.42287
81.0000	1.4145
82.0000	1.40976
83.0000	1.40836
84.0000	1.39706
85.0000	1.39903
86.0000	1.39598
87.0000	1.389
88.0000	1.37911
89.0000	1.37133
90.0000	1.36641
91.0000	1.36635
92.0000	1.3614
93.0000	1.34869
94.0000	1.34375
95.0000	1.341
96.0000	1.33716
97.0000	1.33128
98.0000	1.3232
99.0000	1.31928
100.0000	1.31216
101.0000	1.30195
102.0000	1.29625
103.0000	1.29393
104.0000	1.28937
105.0000	1.27888
106.0000	1.272
107.0000	1.27293
108.0000	1.26757
109.0000	1.25889
110.0000	1.24912
111.0000	1.24825
112.0000	1.23742
113.0000	1.23473
114.0000	1.22748
115.0000	1.22295
116.0000	1.21651
117.0000	1.21224
118.0000	1.20158
119.0000	1.19943
120.0000	1.19135
121.0000	1.18743
122.0000	1.17895
123.0000	1.16897
124.0000	1.16252
125.0000	1.16377
126.0000	1.15222
127.0000	1.14774
128.0000	1.14275
129.0000	1.1333
130.0000	1.12684
131.0000	1.12463
132.0000	1.12017
133.0000	1.11005
134.0000	1.10536
135.0000	1.09578
136.0000	1.09432
137.0000	1.08366
138.0000	1.07595
139.0000	1.07084
140.0000	1.06717
141.0000	1.05812
142.0000	1.05491
143.0000	1.04913
144.0000	1.03927
145.0000	1.03545
146.0000	1.02957
147.0000	1.02362
148.0000	1.01368
149.0000	1.00825
150.0000	1.00481
151.0000	0.99986
152.0000	0.98993
153.0000	0.98676
154.0000	0.98122
155.0000	0.98121
156.0000	0.97004
157.0000	0.95917
158.0000	0.95385
159.0000	0.9498
160.0000	0.94333
161.0000	0.93763
162.0000	0.92777
163.0000	0.92453
164.0000	0.92094
165.0000	0.9123
166.0000	0.90555
167.0000	0.90018
168.0000	0.8964
169.0000	0.88586
170.0000	0.88074
171.0000	0.87201
172.0000	0.86796
173.0000	0.86424
174.0000	0.8588
175.0000	0.85018
176.0000	0.84215
177.0000	0.8389
178.0000	0.82974
179.0000	0.82488
180.0000	0.81731
181.0000	0.8122
182.0000	0.80643
183.0000	0.8002
184.0000	0.79514
185.0000	0.78477
186.0000	0.78093
187.0000	0.77552
188.0000	0.76657
189.0000	0.76252
190.0000	0.75501
191.0000	0.75002
192.0000	0.74063
193.0000	0.73986
194.0000	0.7307
195.0000	0.7254
196.0000	0.72112
197.0000	0.71168
198.0000	0.70505
199.0000	0.69797
200.0000	0.69399
201.0000	0.68605
202.0000	0.67992
203.0000	0.67483
204.0000	0.66957
205.0000	0.66109
206.0000	0.65864
207.0000	0.65238
208.0000	0.64489
209.0000	0.64083
210.0000	0.63233
211.0000	0.62402
212.0000	0.6234
213.0000	0.61428
214.0000	0.6087
215.0000	0.6011
216.0000	0.59565
217.0000	0.58811
218.0000	0.58046
219.0000	0.57448
220.0000	0.57067
221.0000	0.56519
222.0000	0.55842
223.0000	0.54895
224.0000	0.54454
225.0000	0.53796
226.0000	0.53227
227.0000	0.52639
228.0000	0.52352
229.0000	0.51712
230.0000	0.50795
231.0000	0.50494
232.0000	0.49748
233.0000	0.48942
234.0000	0.4845
235.0000	0.47967
236.0000	0.47251
237.0000	0.46721
238.0000	0.46026
239.0000	0.45372
240.0000	0.4473
241.0000	0.44196
242.0000	0.43653
243.0000	0.4329
244.0000	0.4252
245.0000	0.41786
246.0000	0.41314
247.0000	0.40733
248.0000	0.40196
249.0000	0.39555
250.0000	0.39056
251.0000	0.38371
252.0000	0.37925
253.0000	0.37335
254.0000	0.36587
255.0000	0.35904
256.0000	0.35259
257.0000	0.34925
258.0000	0.34612
259.0000	0.33778
260.0000	0.3337
261.0000	0.32592
262.0000	0.32093
263.0000	0.3169
264.0000	0.30994
265.0000	0.30509
266.0000	0.29892
267.0000	0.29334
268.0000	0.28755
269.0000	0.28191
270.0000	0.27561
271.0000	0.27145
272.0000	0.26543
273.0000	0.25952
274.0000	0.25371
275.0000	0.24814
276.0000	0.24365
277.0000	0.23888
278.0000	0.23356
279.0000	0.22993
280.0000	0.22352
281.0000	0.21744
282.0000	0.21154
283.0000	0.20537
284.0000	0.20051
285.0000	0.19687
286.0000	0.19402
287.0000	0.18813
288.0000	0.18298
289.0000	0.17972
290.0000	0.17355
291.0000	0.16698
292.0000	0.16166
293.0000	0.15936
294.0000	0.15518
295.0000	0.15177
296.0000	0.14604
297.0000	0.1422
298.0000	0.13788
299.0000	0.13241
300.0000	0.13045
