TITLE	
DATA TYPE	
ORIGIN	JASCO
OWNER	
DATE	18/01/18
TIME	16:55:38
SPECTROMETER/DATA SYSTEM	JASCO Corp., V-560, Rev. 1.00
RESOLUTION	
DELTAX	1
XUNITS	SEC
YUNITS	ABSORBANCE
FIRSTX	0.0000
LASTX	300.0000
NPOINTS	301
FIRSTY	1.73964
MAXY	1.73964
MINY	0.09042
XYDATA
0.0000	1.73964
1.0000	1.73055
2.0000	1.72321
3.0000	1.72305
4.0000	1.71952
5.0000	1.72221
6.0000	1.71138
7.0000	1.71306
8.0000	1.70691
9.0000	1.70556
10.0000	1.7094
11.0000	1.69416
12.0000	1.69985
13.0000	1.69428
14.0000	1.70062
15.0000	1.69338
16.0000	1.69186
17.0000	1.69214
18.0000	1.68529
19.0000	1.67668
20.0000	1.6813
21.0000	1.6746
22.0000	1.67111
23.0000	1.66213
24.0000	1.66294
25.0000	1.66025
26.0000	1.65725
27.0000	1.65153
28.0000	1.6484
29.0000	1.649
30.0000	1.63827
31.0000	1.64205
32.0000	1.638
33.0000	1.63278
34.0000	1.62385
35.0000	1.62889
36.0000	1.61364
37.0000	1.62117
38.0000	1.61145
39.0000	1.60668
40.0000	1.59599
41.0000	1.60452
42.0000	1.60464
43.0000	1.58187
44.0000	1.58762
45.0000	1.57698
46.0000	1.56986
47.0000	1.57251
48.0000	1.56197
49.0000	1.56431
50.0000	1.55141
51.0000	1.55277
52.0000	1.54429
53.0000	1.53338
54.0000	1.5392
55.0000	1.5288
56.0000	1.52551
57.0000	1.52016
58.0000	1.51693
59.0000	1.50637
60.0000	1.50615
61.0000	1.50807
62.0000	1.49534
63.0000	1.48479
64.0000	1.49007
65.0000	1.481
66.0000	1.46847
67.0000	1.47748
68.0000	1.46499
69.0000	1.45735
70.0000	1.44826
71.0000	1.4439
72.0000	1.44098
73.0000	1.43678
74.0000	1.42303
75.0000	1.42463
76.0000	1.42078
77.0000	1.40683
78.0000	1.40556
79.0000	1.39563
80.0000	1.39748
81.0000	1.39063
82.0000	1.38689
83.0000	1.37044
84.0000	1.37168
85.0000	1.36734
86.0000	1.36419
87.0000	1.35286
88.0000	1.34576
89.0000	1.34286
90.0000	1.33018
91.0000	1.33186
92.0000	1.3223
93.0000	1.32154
94.0000	1.30993
95.0000	1.30685
96.0000	1.3025
97.0000	1.29256
98.0000	1.28815
99.0000	1.28194
100.0000	1.27013
101.0000	1.26794
102.0000	1.26149
103.0000	1.25061
104.0000	1.24296
105.0000	1.24109
106.0000	1.23573
107.0000	1.22837
108.0000	1.22168
109.0000	1.21641
110.0000	1.21654
111.0000	1.21056
112.0000	1.19977
113.0000	1.19207
114.0000	1.18722
115.0000	1.1771
116.0000	1.17883
117.0000	1.16624
118.0000	1.15888
119.0000	1.15288
120.0000	1.14812
121.0000	1.13781
122.0000	1.13231
123.0000	1.12609
124.0000	1.12216
125.0000	1.1203
126.0000	1.11094
127.0000	1.1006
128.0000	1.10011
129.0000	1.09071
130.0000	1.07937
131.0000	1.07648
132.0000	1.06888
133.0000	1.06803
134.0000	1.05767
135.0000	1.04622
136.0000	1.04424
137.0000	1.03781
138.0000	1.02938
139.0000	1.02855
140.0000	1.01938
141.0000	1.01117
142.0000	0.99898
143.0000	1.00135
144.0000	0.99307
145.0000	0.98714
146.0000	0.98146
147.0000	0.97787
148.0000	0.96497
149.0000	0.95701
150.0000	0.94772
151.0000	0.94661
152.0000	0.93938
153.0000	0.93147
154.0000	0.92274
155.0000	0.91871
156.0000	0.9135
157.0000	0.90796
158.0000	0.90042
159.0000	0.89094
160.0000	0.88776
161.0000	0.88267
162.0000	0.87345
163.0000	0.86389
164.0000	0.85829
165.0000	0.85479
166.0000	0.84627
167.0000	0.84115
168.0000	0.83529
169.0000	0.82762
170.0000	0.82024
171.0000	0.81503
172.0000	0.80743
173.0000	0.80479
174.0000	0.79553
175.0000	0.78902
176.0000	0.78107
177.0000	0.77609
178.0000	0.76563
179.0000	0.76147
180.0000	0.75632
181.0000	0.7483
182.0000	0.74341
183.0000	0.73521
184.0000	0.73092
185.0000	0.72472
186.0000	0.71814
187.0000	0.71204
188.0000	0.70062
189.0000	0.69858
190.0000	0.69126
191.0000	0.68248
192.0000	0.67946
193.0000	0.6697
194.0000	0.665
195.0000	0.65779
196.0000	0.65257
197.0000	0.64364
198.0000	0.63894
199.0000	0.63171
200.0000	0.62621
201.0000	0.62087
202.0000	0.61443
203.0000	0.60784
204.0000	0.59857
205.0000	0.59711
206.0000	0.58677
207.0000	0.57871
208.0000	0.57286
209.0000	0.56623
210.0000	0.55954
211.0000	0.5552
212.0000	0.54695
213.0000	0.54067
214.0000	0.53559
215.0000	0.52838
216.0000	0.52158
217.0000	0.51437
218.0000	0.51005
219.0000	0.5024
220.0000	0.49707
221.0000	0.49036
222.0000	0.48284
223.0000	0.47687
224.0000	0.47152
225.0000	0.46308
226.0000	0.45774
227.0000	0.45136
228.0000	0.44539
229.0000	0.43757
230.0000	0.43264
231.0000	0.42857
232.0000	0.42242
233.0000	0.41537
234.0000	0.40813
235.0000	0.40131
236.0000	0.39445
237.0000	0.38931
238.0000	0.38388
239.0000	0.37545
240.0000	0.3708
241.0000	0.36489
242.0000	0.35982
243.0000	0.3535
244.0000	0.34743
245.0000	0.33909
246.0000	0.33451
247.0000	0.32861
248.0000	0.32218
249.0000	0.31673
250.0000	0.3104
251.0000	0.30391
252.0000	0.29821
253.0000	0.2933
254.0000	0.28775
255.0000	0.27979
256.0000	0.27703
257.0000	0.26943
258.0000	0.26471
259.0000	0.25843
260.0000	0.25232
261.0000	0.24789
262.0000	0.24075
263.0000	0.23649
264.0000	0.22929
265.0000	0.22455
266.0000	0.21983
267.0000	0.21375
268.0000	0.20875
269.0000	0.20411
270.0000	0.19867
271.0000	0.19304
272.0000	0.18796
273.0000	0.18207
274.0000	0.17603
275.0000	0.17168
276.0000	0.16652
277.0000	0.1612
278.0000	0.1564
279.0000	0.15085
280.0000	0.14577
281.0000	0.14409
282.0000	0.13865
283.0000	0.13378
284.0000	0.12968
285.0000	0.12587
286.0000	0.12227
287.0000	0.11808
288.0000	0.11501
289.0000	0.11062
290.0000	0.10717
291.0000	0.10627
292.0000	0.103
293.0000	0.10054
294.0000	0.09856
295.0000	0.0958
296.0000	0.09627
297.0000	0.09447
298.0000	0.09301
299.0000	0.09104
300.0000	0.09042
