TITLE	
DATA TYPE	
ORIGIN	JASCO
OWNER	
DATE	18/01/18
TIME	17:05:14
SPECTROMETER/DATA SYSTEM	JASCO Corp., V-560, Rev. 1.00
RESOLUTION	
DELTAX	1
XUNITS	SEC
YUNITS	ABSORBANCE
FIRSTX	0.0000
LASTX	300.0000
NPOINTS	301
FIRSTY	1.75368
MAXY	1.75368
MINY	0.09610
XYDATA
0.0000	1.75368
1.0000	1.74879
2.0000	1.75146
3.0000	1.75012
4.0000	1.74459
5.0000	1.74791
6.0000	1.74782
7.0000	1.73962
8.0000	1.74141
9.0000	1.73878
10.0000	1.73615
11.0000	1.73653
12.0000	1.7308
13.0000	1.72474
14.0000	1.72008
15.0000	1.72084
16.0000	1.71391
17.0000	1.71934
18.0000	1.71801
19.0000	1.70905
20.0000	1.69751
21.0000	1.71019
22.0000	1.70334
23.0000	1.68448
24.0000	1.6918
25.0000	1.69278
26.0000	1.68266
27.0000	1.67835
28.0000	1.67779
29.0000	1.66947
30.0000	1.66367
31.0000	1.67034
32.0000	1.65936
33.0000	1.66281
34.0000	1.66186
35.0000	1.6583
36.0000	1.65724
37.0000	1.65025
38.0000	1.64578
39.0000	1.63876
40.0000	1.63305
41.0000	1.63511
42.0000	1.63153
43.0000	1.62276
44.0000	1.62533
45.0000	1.61477
46.0000	1.60483
47.0000	1.59986
48.0000	1.59754
49.0000	1.58823
50.0000	1.58511
51.0000	1.57673
52.0000	1.57423
53.0000	1.56853
54.0000	1.56175
55.0000	1.56494
56.0000	1.55853
57.0000	1.55421
58.0000	1.54953
59.0000	1.5356
60.0000	1.54385
61.0000	1.52522
62.0000	1.5266
63.0000	1.52216
64.0000	1.52045
65.0000	1.51063
66.0000	1.50634
67.0000	1.50406
68.0000	1.49089
69.0000	1.48482
70.0000	1.48154
71.0000	1.4774
72.0000	1.47489
73.0000	1.46781
74.0000	1.46292
75.0000	1.44432
76.0000	1.44756
77.0000	1.43902
78.0000	1.43626
79.0000	1.42812
80.0000	1.42932
81.0000	1.41871
82.0000	1.41331
83.0000	1.41117
84.0000	1.39726
85.0000	1.3977
86.0000	1.3899
87.0000	1.38887
88.0000	1.37611
89.0000	1.37046
90.0000	1.36931
91.0000	1.36151
92.0000	1.35293
93.0000	1.35369
94.0000	1.34135
95.0000	1.33472
96.0000	1.33384
97.0000	1.32008
98.0000	1.31661
99.0000	1.31008
100.0000	1.3055
101.0000	1.30248
102.0000	1.29328
103.0000	1.29122
104.0000	1.28386
105.0000	1.27663
106.0000	1.26861
107.0000	1.25986
108.0000	1.25974
109.0000	1.24877
110.0000	1.2484
111.0000	1.23682
112.0000	1.23276
113.0000	1.22813
114.0000	1.22287
115.0000	1.20829
116.0000	1.20774
117.0000	1.19563
118.0000	1.19537
119.0000	1.18753
120.0000	1.18288
121.0000	1.17498
122.0000	1.16443
123.0000	1.16073
124.0000	1.15035
125.0000	1.14554
126.0000	1.14664
127.0000	1.13739
128.0000	1.12996
129.0000	1.11789
130.0000	1.11401
131.0000	1.10558
132.0000	1.10443
133.0000	1.09774
134.0000	1.09265
135.0000	1.08526
136.0000	1.07439
137.0000	1.07311
138.0000	1.06526
139.0000	1.05818
140.0000	1.05505
141.0000	1.04828
142.0000	1.03571
143.0000	1.02951
144.0000	1.02177
145.0000	1.01775
146.0000	1.01433
147.0000	1.00994
148.0000	0.99672
149.0000	0.99717
150.0000	0.98652
151.0000	0.97869
152.0000	0.97572
153.0000	0.96641
154.0000	0.96369
155.0000	0.94965
156.0000	0.94948
157.0000	0.94051
158.0000	0.93334
159.0000	0.92753
160.0000	0.91905
161.0000	0.91667
162.0000	0.90955
163.0000	0.90441
164.0000	0.89443
165.0000	0.88946
166.0000	0.88216
167.0000	0.87426
168.0000	0.86639
169.0000	0.86379
170.0000	0.85428
171.0000	0.84912
172.0000	0.84336
173.0000	0.83582
174.0000	0.82833
175.0000	0.8264
176.0000	0.81693
177.0000	0.80997
178.0000	0.80105
179.0000	0.7948
180.0000	0.78893
181.0000	0.78237
182.0000	0.77574
183.0000	0.76882
184.0000	0.76299
185.0000	0.75761
186.0000	0.7494
187.0000	0.74527
188.0000	0.7384
189.0000	0.72915
190.0000	0.72384
191.0000	0.7173
192.0000	0.71047
193.0000	0.70414
194.0000	0.70062
195.0000	0.69366
196.0000	0.68294
197.0000	0.67806
198.0000	0.67024
199.0000	0.66347
200.0000	0.65708
201.0000	0.65268
202.0000	0.64649
203.0000	0.63879
204.0000	0.63076
205.0000	0.6247
206.0000	0.62014
207.0000	0.61149
208.0000	0.60637
209.0000	0.60117
210.0000	0.59149
211.0000	0.58698
212.0000	0.58091
213.0000	0.57302
214.0000	0.56877
215.0000	0.56131
216.0000	0.5559
217.0000	0.54913
218.0000	0.54299
219.0000	0.53664
220.0000	0.53015
221.0000	0.52518
222.0000	0.51537
223.0000	0.51363
224.0000	0.50442
225.0000	0.50011
226.0000	0.49442
227.0000	0.48615
228.0000	0.47771
229.0000	0.47128
230.0000	0.46839
231.0000	0.46211
232.0000	0.45364
233.0000	0.44887
234.0000	0.44065
235.0000	0.43561
236.0000	0.43147
237.0000	0.42434
238.0000	0.41755
239.0000	0.41167
240.0000	0.40646
241.0000	0.39789
242.0000	0.39409
243.0000	0.38672
244.0000	0.38284
245.0000	0.37443
246.0000	0.37128
247.0000	0.36501
248.0000	0.3567
249.0000	0.34954
250.0000	0.34658
251.0000	0.33731
252.0000	0.33166
253.0000	0.32389
254.0000	0.32033
255.0000	0.31457
256.0000	0.30795
257.0000	0.30382
258.0000	0.29806
259.0000	0.29117
260.0000	0.2851
261.0000	0.27932
262.0000	0.27286
263.0000	0.26808
264.0000	0.2605
265.0000	0.25388
266.0000	0.25019
267.0000	0.24421
268.0000	0.2386
269.0000	0.23406
270.0000	0.22712
271.0000	0.22107
272.0000	0.21778
273.0000	0.21067
274.0000	0.20539
275.0000	0.19929
276.0000	0.19343
277.0000	0.1923
278.0000	0.18452
279.0000	0.17863
280.0000	0.17666
281.0000	0.17034
282.0000	0.16342
283.0000	0.15781
284.0000	0.15399
285.0000	0.14854
286.0000	0.14348
287.0000	0.14036
288.0000	0.13581
289.0000	0.13226
290.0000	0.12698
291.0000	0.12308
292.0000	0.12032
293.0000	0.11565
294.0000	0.11055
295.0000	0.10862
296.0000	0.10431
297.0000	0.10282
298.0000	0.10132
299.0000	0.09853
300.0000	0.0961
