TITLE	
DATA TYPE	
ORIGIN	JASCO
OWNER	
DATE	18/01/18
TIME	16:09:14
SPECTROMETER/DATA SYSTEM	JASCO Corp., V-560, Rev. 1.00
RESOLUTION	
DELTAX	1
XUNITS	SEC
YUNITS	ABSORBANCE
FIRSTX	0.0000
LASTX	300.0000
NPOINTS	301
FIRSTY	1.80253
MAXY	1.80253
MINY	0.77393
XYDATA
0.0000	1.80253
1.0000	1.79064
2.0000	1.79463
3.0000	1.79045
4.0000	1.78866
5.0000	1.78256
6.0000	1.77651
7.0000	1.78963
8.0000	1.78222
9.0000	1.77423
10.0000	1.77667
11.0000	1.76941
12.0000	1.76491
13.0000	1.77531
14.0000	1.75521
15.0000	1.75698
16.0000	1.7544
17.0000	1.76062
18.0000	1.75577
19.0000	1.75251
20.0000	1.74642
21.0000	1.74188
22.0000	1.7412
23.0000	1.73333
24.0000	1.74476
25.0000	1.73097
26.0000	1.73557
27.0000	1.71739
28.0000	1.72844
29.0000	1.72533
30.0000	1.71491
31.0000	1.709
32.0000	1.70981
33.0000	1.71233
34.0000	1.71269
35.0000	1.69665
36.0000	1.70319
37.0000	1.69922
38.0000	1.69983
39.0000	1.68639
40.0000	1.6957
41.0000	1.69521
42.0000	1.68383
43.0000	1.67776
44.0000	1.66944
45.0000	1.67658
46.0000	1.67556
47.0000	1.68273
48.0000	1.66418
49.0000	1.66333
50.0000	1.65104
51.0000	1.66101
52.0000	1.65523
53.0000	1.65259
54.0000	1.64662
55.0000	1.65685
56.0000	1.64603
57.0000	1.63682
58.0000	1.63614
59.0000	1.63066
60.0000	1.63177
61.0000	1.62024
62.0000	1.62137
63.0000	1.62457
64.0000	1.61543
65.0000	1.60917
66.0000	1.60894
67.0000	1.60621
68.0000	1.60142
69.0000	1.60437
70.0000	1.59935
71.0000	1.58324
72.0000	1.58843
73.0000	1.58896
74.0000	1.58602
75.0000	1.57882
76.0000	1.58298
77.0000	1.57689
78.0000	1.57079
79.0000	1.5649
80.0000	1.56336
81.0000	1.55713
82.0000	1.55669
83.0000	1.548
84.0000	1.55136
85.0000	1.54003
86.0000	1.53883
87.0000	1.53645
88.0000	1.53137
89.0000	1.53246
90.0000	1.52775
91.0000	1.5217
92.0000	1.52819
93.0000	1.51593
94.0000	1.50994
95.0000	1.51012
96.0000	1.50592
97.0000	1.50797
98.0000	1.51171
99.0000	1.50397
100.0000	1.50153
101.0000	1.4889
102.0000	1.48831
103.0000	1.48414
104.0000	1.48016
105.0000	1.47576
106.0000	1.47509
107.0000	1.46825
108.0000	1.46541
109.0000	1.46249
110.0000	1.45671
111.0000	1.4545
112.0000	1.45886
113.0000	1.44753
114.0000	1.44668
115.0000	1.44203
116.0000	1.44039
117.0000	1.43209
118.0000	1.42759
119.0000	1.42889
120.0000	1.42905
121.0000	1.4225
122.0000	1.42386
123.0000	1.41582
124.0000	1.41159
125.0000	1.41539
126.0000	1.40292
127.0000	1.39738
128.0000	1.39661
129.0000	1.39307
130.0000	1.39462
131.0000	1.38485
132.0000	1.38046
133.0000	1.38252
134.0000	1.37775
135.0000	1.37297
136.0000	1.36634
137.0000	1.36436
138.0000	1.3584
139.0000	1.3606
140.0000	1.35604
141.0000	1.35212
142.0000	1.35025
143.0000	1.34671
144.0000	1.33948
145.0000	1.33622
146.0000	1.33303
147.0000	1.32941
148.0000	1.32647
149.0000	1.32181
150.0000	1.31808
151.0000	1.31482
152.0000	1.31154
153.0000	1.31057
154.0000	1.30415
155.0000	1.30151
156.0000	1.29287
157.0000	1.29096
158.0000	1.2912
159.0000	1.28752
160.0000	1.28675
161.0000	1.27866
162.0000	1.27825
163.0000	1.27129
164.0000	1.26609
165.0000	1.27163
166.0000	1.26723
167.0000	1.26334
168.0000	1.25896
169.0000	1.25501
170.0000	1.24546
171.0000	1.24036
172.0000	1.23999
173.0000	1.23837
174.0000	1.23362
175.0000	1.22716
176.0000	1.22757
177.0000	1.22505
178.0000	1.21909
179.0000	1.21884
180.0000	1.20919
181.0000	1.20759
182.0000	1.2054
183.0000	1.19755
184.0000	1.19722
185.0000	1.19543
186.0000	1.19085
187.0000	1.18924
188.0000	1.18126
189.0000	1.18264
190.0000	1.17643
191.0000	1.17388
192.0000	1.1655
193.0000	1.1639
194.0000	1.15906
195.0000	1.15636
196.0000	1.15179
197.0000	1.15046
198.0000	1.14215
199.0000	1.14303
200.0000	1.13914
201.0000	1.13563
202.0000	1.13569
203.0000	1.12856
204.0000	1.12469
205.0000	1.12528
206.0000	1.11868
207.0000	1.11311
208.0000	1.10601
209.0000	1.10921
210.0000	1.10705
211.0000	1.09845
212.0000	1.09882
213.0000	1.09432
214.0000	1.09214
215.0000	1.08513
216.0000	1.07952
217.0000	1.07443
218.0000	1.07418
219.0000	1.06962
220.0000	1.07055
221.0000	1.05932
222.0000	1.05994
223.0000	1.05596
224.0000	1.05461
225.0000	1.04536
226.0000	1.04326
227.0000	1.04372
228.0000	1.03648
229.0000	1.03489
230.0000	1.0287
231.0000	1.02757
232.0000	1.02183
233.0000	1.02087
234.0000	1.0149
235.0000	1.01134
236.0000	1.00652
237.0000	1.00314
238.0000	0.99965
239.0000	0.99829
240.0000	0.99602
241.0000	0.9915
242.0000	0.98256
243.0000	0.98185
244.0000	0.97646
245.0000	0.97538
246.0000	0.97358
247.0000	0.9679
248.0000	0.96512
249.0000	0.96005
250.0000	0.95429
251.0000	0.95021
252.0000	0.94961
253.0000	0.94382
254.0000	0.94103
255.0000	0.94085
256.0000	0.93302
257.0000	0.92923
258.0000	0.92795
259.0000	0.92466
260.0000	0.92
261.0000	0.9155
262.0000	0.91138
263.0000	0.90827
264.0000	0.90613
265.0000	0.90421
266.0000	0.89833
267.0000	0.89443
268.0000	0.89341
269.0000	0.88863
270.0000	0.8863
271.0000	0.87788
272.0000	0.87702
273.0000	0.87528
274.0000	0.86823
275.0000	0.86464
276.0000	0.86496
277.0000	0.85763
278.0000	0.85432
279.0000	0.84793
280.0000	0.84548
281.0000	0.84161
282.0000	0.83816
283.0000	0.83668
284.0000	0.82972
285.0000	0.82975
286.0000	0.82658
287.0000	0.82032
288.0000	0.81675
289.0000	0.81559
290.0000	0.81118
291.0000	0.80533
292.0000	0.80126
293.0000	0.79648
294.0000	0.79621
295.0000	0.79325
296.0000	0.78751
297.0000	0.78416
298.0000	0.78121
299.0000	0.77692
300.0000	0.77393
